/*--------------------------------*- C++ -*----------------------------------*\
  =========                 |
  \\      /  F ield         | OpenFOAM: The Open Source CFD Toolbox
   \\    /   O peration     | Website:  https://openfoam.org
    \\  /    A nd           | Version:  7
     \\/     M anipulation  |
\*---------------------------------------------------------------------------*/
FoamFile
{
    version     2.0;
    format      ascii;
    class       volScalarField;
    location    "0.0436581/dielectric";
    object      voltD;
}
// * * * * * * * * * * * * * * * * * * * * * * * * * * * * * * * * * * * * * //

dimensions      [1 2 -3 0 0 -1 0];

internalField   nonuniform List<scalar> 
5724
(
3470.39
3480.22
3496.24
3516.47
3539.39
3563.82
3589.17
3615.95
3645.97
3681.99
3726.91
3783.02
3851.57
3932.69
4025.43
4127.91
4237.42
4350.75
4464.45
4575.16
4679.98
4776.65
4863.7
4940.42
5006.77
5063.21
5110.56
5149.82
5182.05
5208.3
5228.93
5246.77
5264.97
5283.54
5302.49
5321.83
5341.58
5361.75
5382.35
5403.4
5424.91
5446.9
5469.38
5492.38
5515.91
5539.99
5564.64
5589.88
5615.73
5642.23
5669.38
5697.23
5725.8
5755.11
5785.21
5816.11
5847.86
5880.49
5914.05
5948.57
5984.1
6020.69
6058.39
6097.24
6137.31
6178.67
6221.38
6265.5
6311.11
6358.3
6407.16
6457.77
6510.24
6564.68
6621.19
6679.92
6740.99
6804.55
6870.74
6939.74
7011.7
7086.81
7165.23
7247.13
7332.67
7421.97
7515.09
7612
7712.53
7816.28
7922.55
8030.19
8137.57
8242.45
8342.16
3470.39
3480.22
3496.24
3516.46
3539.38
3563.81
3589.16
3615.94
3645.96
3681.98
3726.91
3783.03
3851.6
3932.75
4025.54
4128.06
4237.64
4351.06
4464.85
4575.68
4680.63
4777.44
4864.63
4941.49
5007.96
5064.52
5111.97
5151.32
5183.64
5209.96
5230.64
5248.52
5266.77
5285.39
5304.39
5323.79
5343.6
5363.83
5384.49
5405.61
5427.19
5449.25
5471.82
5494.89
5518.51
5542.68
5567.42
5592.76
5618.72
5645.32
5672.6
5700.57
5729.26
5758.72
5788.95
5820.01
5851.93
5884.74
5918.48
5953.2
5988.95
6025.77
6063.71
6102.83
6143.19
6184.85
6227.89
6272.37
6318.38
6366
6415.32
6466.44
6519.48
6574.53
6631.74
6691.22
6753.14
6817.65
6884.91
6955.11
7028.43
7105.09
7185.29
7269.24
7357.15
7449.2
7545.52
7646.18
7751.08
7859.92
7972.05
8086.33
8200.99
8313.47
8420.56
3470.38
3480.21
3496.23
3516.46
3539.37
3563.79
3589.14
3615.92
3645.94
3681.97
3726.9
3783.04
3851.63
3932.81
4025.63
4128.21
4237.85
4351.35
4465.24
4576.18
4681.25
4778.19
4865.51
4942.49
5009.08
5065.75
5113.3
5152.74
5185.13
5211.51
5232.24
5250.16
5268.46
5287.13
5306.18
5325.63
5345.5
5365.78
5386.51
5407.69
5429.33
5451.46
5474.1
5497.25
5520.94
5545.2
5570.03
5595.46
5621.51
5648.22
5675.6
5703.69
5732.51
5762.09
5792.46
5823.67
5855.74
5888.71
5922.63
5957.54
5993.48
6030.51
6068.69
6108.05
6148.68
6190.63
6233.98
6278.8
6325.18
6373.2
6422.96
6474.56
6528.12
6583.76
6641.61
6701.81
6764.53
6829.94
6898.21
6969.55
7044.18
7122.33
7204.25
7290.18
7380.4
7475.16
7574.68
7679.1
7788.47
7902.59
8020.92
8142.36
8265.04
8386.06
8501.54
3470.38
3480.21
3496.23
3516.45
3539.36
3563.78
3589.13
3615.9
3645.93
3681.96
3726.9
3783.05
3851.66
3932.87
4025.73
4128.35
4238.05
4351.62
4465.6
4576.65
4681.83
4778.89
4866.33
4943.43
5010.13
5066.9
5114.55
5154.07
5186.52
5212.96
5233.74
5251.7
5270.04
5288.76
5307.86
5327.36
5347.27
5367.61
5388.39
5409.62
5431.33
5453.53
5476.23
5499.45
5523.22
5547.55
5572.46
5597.98
5624.12
5650.92
5678.41
5706.6
5735.53
5765.23
5795.73
5827.07
5859.28
5892.4
5926.48
5961.57
5997.7
6034.93
6073.31
6112.9
6153.78
6196
6239.64
6284.77
6331.49
6379.88
6430.05
6482.1
6536.15
6592.34
6650.79
6711.67
6775.14
6841.38
6910.61
6983.04
7058.9
7138.47
7222.02
7309.87
7402.33
7499.73
7602.4
7710.58
7824.47
7944.03
8068.87
8198.03
8329.58
8460.29
8585.43
3470.38
3480.21
3496.23
3516.44
3539.35
3563.77
3589.11
3615.89
3645.91
3681.94
3726.9
3783.06
3851.69
3932.92
4025.82
4128.48
4238.24
4351.89
4465.95
4577.09
4682.38
4779.55
4867.1
4944.31
5011.11
5067.98
5115.71
5155.3
5187.82
5214.31
5235.13
5253.14
5271.51
5290.27
5309.41
5328.96
5348.92
5369.3
5390.14
5411.42
5433.19
5455.44
5478.2
5501.49
5525.32
5549.72
5574.71
5600.31
5626.53
5653.42
5681
5709.29
5738.32
5768.13
5798.75
5830.21
5862.55
5895.82
5930.05
5965.29
6001.59
6039
6077.58
6117.38
6158.49
6200.95
6244.86
6290.28
6337.31
6386.05
6436.59
6489.05
6543.56
6600.25
6659.26
6720.76
6784.93
6851.96
6922.07
6995.51
7072.53
7153.43
7238.54
7328.21
7422.81
7522.76
7628.49
7740.39
7858.8
7983.91
8115.56
8252.99
8394.36
8536.14
8672.61
3470.38
3480.21
3496.22
3516.44
3539.35
3563.76
3589.1
3615.87
3645.89
3681.93
3726.9
3783.07
3851.72
3932.97
4025.9
4128.61
4238.42
4352.13
4466.28
4577.5
4682.89
4780.16
4867.82
4945.13
5012.03
5068.98
5116.79
5156.45
5189.02
5215.56
5236.42
5254.46
5272.88
5291.67
5310.85
5330.44
5350.44
5370.87
5391.75
5413.09
5434.9
5457.21
5480.02
5503.37
5527.27
5551.73
5576.79
5602.45
5628.75
5655.72
5683.38
5711.76
5740.89
5770.8
5801.52
5833.09
5865.55
5898.95
5933.31
5968.7
6005.15
6042.73
6081.49
6121.49
6162.79
6205.48
6249.63
6295.32
6342.63
6391.68
6442.57
6495.41
6550.33
6607.48
6667
6729.07
6793.88
6861.63
6932.56
7006.93
7085.02
7167.17
7253.72
7345.09
7441.72
7544.1
7652.77
7768.28
7891.17
8021.87
8160.56
8306.8
8459.03
8613.55
8763.54
3470.38
3480.2
3496.22
3516.43
3539.34
3563.74
3589.08
3615.85
3645.88
3681.92
3726.89
3783.08
3851.75
3933.02
4025.98
4128.73
4238.6
4352.37
4466.58
4577.89
4683.37
4780.73
4868.48
4945.88
5012.87
5069.91
5117.78
5157.5
5190.13
5216.71
5237.61
5255.68
5274.13
5292.95
5312.17
5331.79
5351.83
5372.31
5393.23
5414.61
5436.47
5458.82
5481.69
5505.09
5529.04
5553.56
5578.68
5604.41
5630.78
5657.82
5685.56
5714.01
5743.23
5773.22
5804.04
5835.71
5868.28
5901.79
5936.28
5971.79
6008.39
6046.11
6085.03
6125.2
6166.7
6209.59
6253.95
6299.87
6347.45
6396.78
6447.97
6501.15
6556.45
6614.01
6673.99
6736.57
6801.96
6870.37
6942.04
7017.26
7096.33
7179.61
7267.49
7360.43
7458.94
7563.59
7675.05
7794.01
7921.24
8057.5
8203.34
8358.86
8523.01
8692.29
8858.78
3470.37
3480.2
3496.21
3516.42
3539.33
3563.73
3589.07
3615.84
3645.86
3681.91
3726.89
3783.09
3851.77
3933.07
4026.06
4128.84
4238.76
4352.58
4466.87
4578.25
4683.81
4781.26
4869.1
4946.58
5013.65
5070.75
5118.69
5158.47
5191.14
5217.76
5238.69
5256.79
5275.27
5294.12
5313.37
5333.03
5353.1
5373.61
5394.57
5415.99
5437.89
5460.29
5483.2
5506.65
5530.65
5555.22
5580.39
5606.18
5632.61
5659.71
5687.52
5716.05
5745.33
5775.41
5806.31
5838.07
5870.74
5904.35
5938.94
5974.57
6011.29
6049.15
6088.21
6128.53
6170.19
6213.26
6257.81
6303.95
6351.75
6401.33
6452.8
6506.27
6561.9
6619.83
6680.22
6743.26
6809.16
6878.14
6950.48
7026.45
7106.4
7190.7
7279.78
7374.14
7474.35
7581.09
7695.12
7817.31
7948.68
8090.3
8243.27
8408.39
8585.49
8771.86
8958.9
3470.37
3480.2
3496.21
3516.42
3539.32
3563.72
3589.05
3615.82
3645.85
3681.9
3726.89
3783.1
3851.8
3933.12
4026.13
4128.95
4238.91
4352.79
4467.13
4578.59
4684.22
4781.75
4869.66
4947.22
5014.35
5071.52
5119.52
5159.34
5192.05
5218.71
5239.67
5257.79
5276.29
5295.18
5314.45
5334.14
5354.24
5374.78
5395.77
5417.23
5439.16
5461.6
5484.55
5508.04
5532.08
5556.7
5581.92
5607.76
5634.24
5661.4
5689.26
5717.86
5747.21
5777.35
5808.33
5840.17
5872.92
5906.61
5941.3
5977.03
6013.86
6051.83
6091.02
6131.47
6173.27
6216.49
6261.22
6307.53
6355.53
6405.32
6457.03
6510.76
6566.68
6624.92
6685.67
6749.1
6815.45
6884.94
6957.85
7034.49
7115.19
7200.38
7290.51
7386.13
7487.86
7596.45
7712.79
7837.92
7973.1
8119.79
8279.64
8454.39
8645.26
8851.23
9064.38
3470.37
3480.19
3496.2
3516.41
3539.31
3563.71
3589.03
3615.8
3645.83
3681.89
3726.88
3783.1
3851.82
3933.16
4026.2
4129.05
4239.05
4352.98
4467.38
4578.9
4684.6
4782.19
4870.17
4947.79
5014.99
5072.21
5120.26
5160.12
5192.87
5219.56
5240.54
5258.69
5277.21
5296.11
5315.42
5335.13
5355.26
5375.82
5396.84
5418.33
5440.29
5462.76
5485.75
5509.27
5533.35
5558.01
5583.27
5609.15
5635.68
5662.89
5690.8
5719.44
5748.85
5779.06
5810.09
5842
5874.82
5908.59
5943.36
5979.17
6016.09
6054.16
6093.45
6134.01
6175.93
6219.29
6264.15
6310.62
6358.78
6408.76
6460.66
6514.62
6570.77
6629.28
6690.33
6754.1
6820.82
6890.74
6964.13
7041.32
7122.68
7208.62
7299.64
7396.32
7499.35
7609.54
7727.89
7855.59
7994.14
8145.4
8311.65
8495.68
8700.58
8928.48
9175.13
3470.37
3480.19
3496.2
3516.41
3539.3
3563.69
3589.02
3615.79
3645.81
3681.87
3726.88
3783.11
3851.84
3933.2
4026.26
4129.15
4239.18
4353.15
4467.6
4579.18
4684.93
4782.59
4870.62
4948.3
5015.55
5072.82
5120.91
5160.81
5193.59
5220.31
5241.3
5259.47
5278.01
5296.94
5316.26
5335.99
5356.14
5376.73
5397.77
5419.28
5441.28
5463.77
5486.79
5510.34
5534.45
5559.14
5584.44
5610.36
5636.92
5664.16
5692.12
5720.81
5750.26
5780.51
5811.6
5843.56
5876.44
5910.27
5945.1
5980.99
6017.98
6056.13
6095.5
6136.16
6178.18
6221.64
6266.61
6313.2
6361.51
6411.63
6463.69
6517.83
6574.17
6632.9
6694.19
6758.23
6825.25
6895.51
6969.29
7046.93
7128.81
7215.36
7307.11
7404.66
7508.74
7620.24
7740.23
7870.07
8011.46
8166.61
8338.43
8530.84
8749.16
9000.24
9289.17
3470.36
3480.19
3496.19
3516.4
3539.29
3563.68
3589
3615.77
3645.8
3681.86
3726.87
3783.12
3851.86
3933.24
4026.32
4129.24
4239.31
4353.32
4467.81
4579.43
4685.24
4782.94
4871.03
4948.76
5016.05
5073.36
5121.48
5161.41
5194.21
5220.95
5241.97
5260.14
5278.7
5297.64
5316.98
5336.73
5356.9
5377.51
5398.57
5420.1
5442.11
5464.63
5487.67
5511.24
5535.38
5560.1
5585.42
5611.37
5637.96
5665.24
5693.22
5721.94
5751.43
5781.72
5812.85
5844.86
5877.78
5911.66
5946.54
5982.48
6019.53
6057.74
6097.18
6137.9
6180
6223.54
6268.61
6315.29
6363.7
6413.93
6466.12
6520.38
6576.88
6635.77
6697.24
6761.48
6828.73
6899.25
6973.33
7051.31
7133.57
7220.58
7312.87
7411.08
7515.95
7628.44
7749.69
7881.16
8024.74
8182.94
8359.18
8558.4
8788.13
9060.89
9399.16
8434.69
8517.47
8588.58
8647.94
8696.27
8734.67
8764.32
8786.3
8801.55
8810.81
8814.66
8813.52
8807.67
8797.27
8782.37
8762.93
8738.78
8709.66
8675.19
8634.87
8588.02
8533.81
8471.18
8398.81
8315.08
8218
8105.19
7973.91
7821.21
7644.21
7440.74
7210.18
8519.62
8607.48
8682.03
8743.43
8792.8
8831.62
8861.37
8883.36
8898.64
8908.06
8912.24
8911.63
8906.54
8897.16
8883.53
8865.62
8843.28
8816.25
8784.18
8746.55
8702.71
8651.82
8592.79
8524.27
8444.54
8351.46
8242.39
8114.18
7963.25
7785.94
7579.25
7342.02
8607.96
8701.28
8779.22
8842.34
8892.33
8931.15
8960.64
8982.32
8997.4
9006.79
9011.17
9011.02
9006.65
8998.25
8985.9
8969.56
8949.1
8924.28
8894.74
8860
8819.41
8772.14
8717.1
8652.92
8577.81
8489.48
8385.05
8260.91
8112.79
7936.02
7726.45
7482.03
8700.25
8799.46
8880.62
8944.99
8995.03
9033.33
9062.12
9083.16
9097.78
9106.95
9111.4
9111.6
9107.89
9100.47
9089.4
9074.68
9056.17
9033.65
9006.79
8975.11
8938.01
8894.67
8844.02
8784.68
8714.83
8632.08
8533.31
8414.46
8270.47
8095.44
7883.57
7631.37
8797.23
8902.77
8986.8
9051.71
9101.07
9138.22
9165.81
9185.82
9199.7
9208.46
9212.83
9213.3
9210.2
9203.72
9193.95
9180.87
9164.38
9144.26
9120.2
9091.77
9058.39
9019.28
8973.41
8919.42
8855.52
8779.24
8687.28
8575.17
8436.99
8265.33
8052.15
7791.6
8899.93
9012.19
9098.41
9162.85
9210.59
9245.83
9271.65
9290.24
9303.08
9311.22
9315.37
9316.01
9313.46
9307.91
9299.44
9288.04
9273.62
9255.99
9234.86
9209.84
9180.4
9145.8
9105.1
9057
8999.72
8930.85
8846.98
8743.29
8613.02
8447.03
8234.21
7964.83
9009.78
9129.02
9216.23
9278.75
9323.66
9356.11
9379.56
9396.28
9407.8
9415.11
9418.9
9419.63
9417.58
9412.93
9405.76
9396.07
9383.77
9368.7
9350.62
9329.17
9303.87
9274.07
9238.9
9197.17
9147.23
9086.74
9012.31
8918.96
8799.22
8642.06
8432.35
8154.05
9129
9254.96
9341.06
9399.66
9440.28
9468.95
9489.37
9503.81
9513.71
9520.01
9523.31
9524.03
9522.43
9518.67
9512.8
9504.84
9494.71
9482.28
9467.34
9449.59
9428.62
9403.86
9374.57
9339.69
9297.74
9246.58
9183.03
9102.15
8996.07
8852.03
8650.01
8363.76
9261.14
9392.25
9473.71
9525.68
9560.29
9584.14
9600.89
9612.63
9620.65
9625.75
9628.45
9629.1
9627.91
9625
9620.44
9614.23
9606.31
9596.58
9584.86
9570.93
9554.44
9534.95
9511.83
9484.21
9450.87
9409.96
9358.68
9292.5
9203.71
9078.5
8891.63
8601.19
9412.39
9543.66
9614.76
9656.64
9683.36
9701.36
9713.83
9722.51
9728.42
9732.18
9734.18
9734.69
9733.86
9731.8
9728.54
9724.1
9718.42
9711.43
9703.02
9692.99
9681.12
9667.06
9650.36
9630.37
9606.14
9576.28
9538.56
9489.28
9421.72
9322.5
9162.7
8878.79
9594.3
9712.18
9764.11
9791.91
9808.92
9820.14
9827.85
9833.18
9836.8
9839.1
9840.34
9840.66
9840.18
9838.94
9836.99
9834.32
9830.9
9826.7
9821.62
9815.58
9808.42
9799.93
9789.84
9777.73
9763.02
9744.83
9721.73
9691.27
9648.72
9583.74
9469.06
9219.74
9830.16
9899.47
9920.33
9930.25
9936.11
9939.93
9942.54
9944.34
9945.56
9946.33
9946.75
9946.86
9946.7
9946.29
9945.64
9944.75
9943.61
9942.2
9940.51
9938.49
9936.1
9933.26
9929.88
9925.83
9920.9
9914.79
9907
9896.69
9882.11
9859.12
9813.73
9670.38
6952.82
6672.11
6374.64
6065.53
5748.96
5427.89
5104.13
4778.51
4451.12
4121.44
3788.4
3450.42
3105.37
2750.36
2381.55
1993.74
1579.84
1130.45
638.312
7074.69
6781.79
6471.39
6149.78
5821.81
5490.76
5158.48
4825.74
4492.55
4158.29
3821.9
3481.9
3136.38
2782.95
2418.69
2040.12
1643.7
1227.95
803.808
7203.3
6896.34
6571.27
6235.79
5895.53
5553.98
5212.96
4873.1
4534.26
4195.73
3856.41
3514.92
3169.6
2818.57
2459.81
2091.48
1712.94
1327.78
952.768
7339.37
7015.94
6674.04
6323.14
5969.61
5617.05
5267.11
4920.19
4575.89
4233.39
3891.53
3549
3204.41
2856.33
2503.59
2145.68
1784.03
1424.79
1084.86
7483.76
7140.69
6779.31
6411.22
6043.41
5679.38
5320.43
4966.53
4617.03
4270.86
3926.83
3583.67
3240.19
2895.4
2548.81
2200.92
1854.44
1516.43
1201.75
7637.52
7270.53
6886.45
6499.22
6116.16
5740.31
5372.33
5011.66
4657.23
4307.75
3961.88
3618.42
3276.33
2934.98
2594.39
2255.77
1922.49
1601.57
1305.34
7801.84
7405.14
6994.48
6586.06
6186.91
5799.05
5422.18
5055.05
4696.06
4343.62
3996.27
3652.78
3312.26
2974.34
2639.41
2309.13
1987.1
1679.83
1397.33
7978.05
7543.64
7101.87
6670.33
6254.51
5854.72
5469.33
5096.17
4733.06
4378.08
4029.59
3686.32
3347.48
3012.87
2683.15
2360.2
2047.6
1751.2
1479.06
8167.27
7684.19
7206.41
6750.21
6317.65
5906.38
5513.08
5134.48
4767.81
4410.74
4061.45
3718.62
3381.51
3050.03
2725
2408.37
2103.59
1815.81
1551.57
8369.54
7823.26
7304.95
6823.5
6374.85
5953.05
5552.72
5169.48
4799.87
4441.22
4091.5
3749.33
3413.97
3085.4
2764.51
2453.25
2154.85
1873.85
1615.68
8581.39
7954.55
7393.21
6887.65
6424.59
5993.73
5587.6
5200.67
4828.89
4469.22
4119.46
3778.15
3444.54
3118.64
2801.34
2494.54
2201.26
1925.54
1671.99
8789.09
8067.59
7465.93
6939.98
6465.34
6027.53
5617.12
5227.65
4854.53
4494.45
4145.06
3804.82
3472.96
3149.48
2835.24
2532.07
2242.79
1971.05
1720.94
183.406
103.153
74.8909
59.432
49.1583
41.6852
35.9738
31.4717
27.8472
24.883
22.4285
20.3748
18.6405
17.1638
15.8965
14.8011
13.8477
13.0124
12.2761
11.6232
11.0408
10.5188
10.0484
9.62266
9.23558
8.88224
8.55847
8.26077
7.98614
7.73206
7.49633
7.27709
7.0727
6.88176
6.70306
6.5355
6.37817
6.23021
6.09091
5.9596
5.83572
5.71874
5.60821
5.50371
5.40487
5.31136
5.22289
5.13917
5.05997
4.98507
4.91429
4.84748
4.78443
4.72503
4.66917
4.61676
4.56771
4.52194
4.47941
4.44008
4.40394
4.371
4.34127
4.31479
4.29164
4.2719
4.25571
4.24321
4.23462
4.23019
4.2302
4.23505
4.24518
4.26116
4.28364
4.31346
4.35163
4.39937
4.4582
4.52996
4.61701
4.72221
4.84916
5.00242
5.18769
5.41251
5.68648
6.02222
6.43716
6.9553
7.61158
8.46022
9.59174
11.1803
13.6286
18.2344
31.7182
442.797
294.363
220.955
176.791
146.662
124.545
107.57
94.1608
83.35
74.5012
67.1695
61.0319
55.847
51.4306
47.6398
44.3623
41.509
39.0087
36.8043
34.8491
33.1051
31.5415
30.1324
28.8569
27.6971
26.6382
25.6679
24.7757
23.9526
23.1909
22.4843
21.827
21.2143
20.6418
20.106
19.6036
19.1318
18.6882
18.2705
17.8767
17.5052
17.1544
16.8229
16.5096
16.2131
15.9327
15.6674
15.4163
15.1787
14.9541
14.7418
14.5414
14.3523
14.1741
14.0066
13.8494
13.7022
13.5649
13.4373
13.3194
13.2109
13.1121
13.0229
12.9435
12.874
12.8147
12.7661
12.7286
12.7027
12.6893
12.6893
12.7037
12.7339
12.7816
12.8488
12.938
13.0522
13.1949
13.3709
13.5855
13.8458
14.1604
14.5399
14.998
15.5517
16.2233
17.0415
18.0438
19.2816
20.8259
22.779
25.2985
28.6427
33.2915
40.2592
52.1263
76.7151
641.545
463.784
358.528
290.074
241.84
205.91
178.132
156.095
138.283
123.679
111.564
101.412
92.8303
85.5159
79.234
73.8002
69.0677
64.9192
61.2601
58.0136
55.1171
52.5192
50.1777
48.0574
46.1292
44.3685
42.7548
41.2706
39.9011
38.6338
37.4579
36.3641
35.3441
34.3912
33.4993
32.6629
31.8774
31.1387
30.4431
29.7874
29.1687
28.5845
28.0324
27.5105
27.0168
26.5496
26.1077
25.6894
25.2937
24.9195
24.5659
24.232
23.9169
23.6201
23.341
23.079
22.8339
22.6051
22.3925
22.1959
22.0152
21.8505
21.7017
21.5692
21.4533
21.3545
21.2733
21.2105
21.1672
21.1446
21.1441
21.1677
21.2175
21.2964
21.4076
21.5553
21.7444
21.9809
22.2723
22.6278
23.0589
23.5797
24.2078
24.9658
25.8814
26.9916
28.3431
29.9969
32.0371
34.5777
37.782
41.8969
47.3151
54.7295
65.4668
82.3256
111.372
802.475
612.149
485.412
397.484
333.443
284.909
247.025
216.801
192.285
172.133
155.387
141.337
129.445
119.301
110.582
103.034
96.4567
90.6873
85.5959
81.0764
77.0422
73.4224
70.1586
67.2022
64.5126
62.056
59.8038
57.732
55.8199
54.0501
52.4076
50.8795
49.4545
48.1229
46.8763
45.7072
44.6092
43.5765
42.604
41.6872
40.8221
40.0052
39.2331
38.5031
37.8126
37.1592
36.541
35.9559
35.4024
34.8789
34.3842
33.9171
33.4762
33.061
32.6704
32.3038
31.9607
31.6405
31.3429
31.0677
30.8147
30.5841
30.3757
30.1901
30.0277
29.889
29.775
29.6868
29.6256
29.5933
29.5919
29.624
29.6927
29.8018
29.9558
30.1605
30.4227
30.7508
31.1551
31.6481
32.2458
32.9677
33.838
34.8876
36.1547
37.6898
39.5566
41.838
44.6473
48.1366
52.5207
58.1161
65.408
75.2029
88.8962
108.987
139.648
937.525
742.05
601.028
497.958
420.544
360.816
313.695
275.851
245.018
219.599
198.428
180.634
165.553
152.672
141.59
131.987
123.611
116.259
109.766
103.998
98.847
94.2224
90.0504
86.2695
82.8284
79.6842
76.8007
74.1471
71.6975
69.4295
67.3243
65.3651
63.5378
61.8299
60.2309
58.731
57.3222
55.997
54.7489
53.5721
52.4616
51.4128
50.4216
49.4844
48.5977
47.7587
46.9648
46.2134
45.5024
44.8301
44.1945
43.5945
43.0282
42.4947
41.9928
41.5218
41.081
40.6694
40.2869
39.9331
39.6079
39.3112
39.0432
38.8044
38.5952
38.4165
38.2694
38.1552
38.0757
38.0331
38.0301
38.0698
38.1562
38.2941
38.4894
38.7491
39.082
39.4987
40.0121
40.6381
41.3968
42.3127
43.4163
44.7462
46.3504
48.2917
50.6495
53.526
57.0601
61.4358
66.9079
73.8419
82.7748
94.5449
110.468
132.581
163.624
1053.41
856.136
705.622
590.983
502.508
433.062
377.67
332.864
296.18
265.832
240.489
219.144
201.022
185.522
172.168
160.583
150.468
141.581
133.725
126.741
120.499
114.891
109.829
105.238
101.058
97.2368
93.7307
90.503
87.5223
84.7617
82.1984
79.8124
77.5863
75.5054
73.5566
71.7284
70.0109
68.395
66.873
65.4378
64.0833
62.8038
61.5945
60.4509
59.3689
58.3451
57.3762
56.459
55.5913
54.7705
53.9946
53.2621
52.5707
51.9192
51.3063
50.7311
50.1926
49.6899
49.2226
48.7903
48.3927
48.0301
47.7023
47.41
47.1539
46.9348
46.7541
46.6135
46.5151
46.4615
46.4558
46.502
46.6047
46.7698
47.0042
47.3165
47.717
48.2184
48.8364
49.5896
50.5021
51.6031
52.9288
54.525
56.4482
58.7727
61.5914
65.0234
69.2286
74.4165
80.8706
88.9863
99.3183
112.681
130.241
153.582
184.474
1154.18
956.644
799.797
676.408
578.947
501.227
438.571
387.517
345.502
310.611
281.388
256.717
235.73
217.748
202.231
188.753
176.969
166.603
157.431
149.269
141.966
135.401
129.47
124.087
119.183
114.698
110.58
106.787
103.283
100.037
97.021
94.2131
91.5927
89.1425
86.8473
84.6937
82.6699
80.7657
78.9718
77.28
75.683
74.1743
72.7483
71.3995
70.1233
68.9155
67.7724
66.6903
65.6664
64.6978
63.7822
62.9176
62.1015
61.3324
60.6089
59.9297
59.2938
58.7001
58.1481
57.6373
57.1674
56.7387
56.351
56.005
55.7017
55.4419
55.2272
55.0596
54.9415
54.8759
54.8664
54.9177
55.0351
55.2253
55.4963
55.8581
56.3226
56.9043
57.6212
58.4948
59.5527
60.8282
62.3628
64.2085
66.4297
69.1103
72.3548
76.2964
81.1119
87.0293
94.3511
103.486
114.982
129.6
148.334
172.392
202.91
1242.44
1045.34
884.256
754.305
649.653
565.018
496.102
439.545
392.755
353.743
320.965
293.22
269.566
249.257
231.703
216.43
